Day fraction since midnight on 	200 kPa (Pa)	Temperature In (C)	PumpOutput ()
0.6407542436	15207.0048828125	16.2465629578	0.4010526316
0.6408121140	15200.0605468750	16.5239887238	0.4010526316
0.6408699959	15185.7763671875	16.8553256989	0.4010526316
0.6409278779	15170.2910156250	17.1964111328	0.4010526316
0.6409857598	15152.8095703125	17.4744224548	0.4010526316
0.6410436302	15161.0039062500	17.7172279358	0.4010526316
0.6411015121	11644.2451171875	18.1095161438	0.4010526316
0.6411594057	2614.1606445313	18.5112342834	0.4010526316
0.6412172760	4753.3193359375	18.6115436554	0.4010526316
0.6412751525	4627.5205078125	18.5978164673	0.4010526316
0.6413330402	4333.9165039063	18.5740985870	0.4010526316
0.6413909048	4406.3930664063	18.5741138458	0.4010526316
0.6414487694	4069.3286132813	18.5832138062	0.4010526316
0.6415066455	3861.7500000000	18.5877208710	0.4010526316
0.6415645217	2388.1589355469	18.5990238190	0.4010526316
0.6416223863	2633.2470703125	18.6403541565	0.4010526316
0.6416802509	2752.8750000000	18.9849567413	0.4010526316
0.6417381270	3023.8666992188	19.2142467499	0.4010526316
0.6417960148	2873.6755371094	19.3027057648	0.4010526316
0.6418538678	2842.6501464844	19.3416690826	0.4010526316
0.6419117439	2311.5131835938	19.3593292236	0.4010526316
0.6419696201	2991.0239257813	19.3728103638	0.4010526316
0.6420274962	2465.4077148438	19.3826885223	0.4010526316
0.6420853608	3337.4943847656	19.3847694397	0.4010526316
0.6421432370	3268.1970214844	19.3934593201	0.4010526316
0.6422011131	3277.0554199219	19.4033164978	0.4010526316
0.6422589893	2725.5405273438	19.4096527100	0.4010526316
0.6423168654	3963.1193847656	19.4145984650	0.4010526316
0.6423747416	4356.4614257813	19.4233798981	0.4010526316
0.6424325946	4645.5107421875	19.4956111908	0.4010526316
0.6424904708	4100.7387695313	19.7889156342	0.4010526316
0.6425483469	4538.3256835938	19.9788570404	0.4010526316
0.6426062231	4407.3510742188	20.0601482391	0.4010526316
0.6426640992	4437.2739257813	20.1408843994	0.4010526316
0.6427219754	4153.0659179688	20.2017421722	0.4010526316
0.6427798516	3702.7541503906	20.1493778229	0.4010526316
0.6428377046	4036.0251464844	20.1058197021	0.4010526316
0.6428955807	3530.8422851563	20.2130832672	0.4010526316
0.6429534684	4193.1123046875	20.2515087128	0.4010526316
0.6430113446	4625.1704101563	20.1979980469	0.4010526316
0.6430691976	4330.1176757813	20.5089225769	0.4010526316
0.6431270738	4650.0981445313	21.0052890778	0.4010526316
0.6431849499	4244.0468750000	20.7507629395	0.4010526316
0.6432428145	4551.8046875000	20.5624485016	0.4010526316
0.6433006907	4433.6933593750	20.5040092468	0.4010526316
0.6433585784	4396.1523437500	20.5309734344	0.4010526316
0.6434164546	4831.9541015625	20.5718612671	0.4010526316
0.6434743191	4989.6757812500	20.5894279480	0.4010526316
0.6435321953	4559.4609375000	20.6030902863	0.4010526316
0.6435900715	4931.3149414063	20.6364326477	0.4010526316
0.6436479245	4643.6420898438	20.6863918304	0.4010526316
0.6437058006	4694.4492187500	20.7465133667	0.4010526316
0.6437636768	4612.0507812500	20.8043746948	0.4010526316
0.6438215529	4073.6923828125	20.8436050415	0.4010526316
0.6438794175	4218.6162109375	20.8733768463	0.4010526316
0.6439373052	3738.6406250000	20.9010066986	0.4010526316
0.6439951814	4541.1713867188	20.9217872620	0.4010526316
0.6440530344	4672.5087890625	20.9332427979	0.4010526316
0.6441109106	4230.2280273438	20.9562320709	0.4010526316
0.6441687867	4768.5102539063	21.0061340332	0.4010526316
0.6442266629	5141.2548828125	21.0515480042	0.4010526316
0.6442845390	7633.7563476563	21.0495357513	0.4010526316
0.6443424152	9263.5400390625	21.0166473389	0.4010526316
0.6444002914	9441.9355468750	21.0032768250	0.4010526316
0.6444581444	5115.4594726563	21.0118751526	0.4010526316
0.6445160205	4311.6118164063	21.0296669006	0.4010526316
0.6445739198	3968.0410156250	21.0470943451	0.4010526316
0.6446317728	4304.3920898438	21.0675601959	0.4010526316
0.6446896490	4184.6665039063	21.0876579285	0.4010526316
0.6447475252	4212.7324218750	21.1019077301	0.4010526316
0.6448054013	4161.3984375000	21.1107463837	0.4010526316
0.6448632543	3246.5192871094	21.1120338440	0.4010526316
0.6449211420	3502.1335449219	21.1208801270	0.4010526316
0.6449790182	4257.3974609375	21.0969676971	0.4010526316
0.6450368944	4218.9467773438	21.0967540741	0.4010526316
0.6450947474	4400.4248046875	21.1457939148	0.4010526316
0.6451526235	4730.8886718750	21.1960754395	0.4010526316
0.6452105113	4798.0424804688	21.2225608826	0.4010526316
0.6452683643	3798.7485351563	21.2311458588	0.4010526316
0.6453262404	4639.9101562500	21.2351932526	0.4010526316
0.6453841166	4159.9150390625	21.2773838043	0.4010526316
0.6454419927	4381.9492187500	21.3127918243	0.4010526316
0.6454998689	5049.3505859375	21.3466262817	0.4010526316
0.6455577450	5331.6987304688	21.3745346069	0.4010526316
0.6456156212	12795.9531250000	21.3730754852	0.4010526316
